PMN_25um, 20.5.2021, 17:50
Fixed value(s) :  Temp. [K]=3.1165e+02  AC Volt  [Vrms]=1.000e-01
 Freq. [Hz]	 Eps'    	 Eps''   	 Sig' [S/cm]	Tan(Delta)  	 Zp' [Ohms]	 Sig'' [S/cm]	M Time M[s]	  Cp' [F]
3.00000e+06	1.59472e+03	3.09666e+03	5.16825e-03	1.94182e+00	1.53974e+01	-2.65989e-03	3.75167e+02	1.77437e-09
1.87500e+06	3.05399e+03	3.72272e+03	3.88321e-03	1.21897e+00	2.04927e+01	-3.18461e-03	3.76203e+02	3.39803e-09
1.17188e+06	4.77499e+03	3.66428e+03	2.38890e-03	7.67390e-01	3.33113e+01	-3.11237e-03	3.77853e+02	5.31290e-09
7.32422e+05	6.17687e+03	2.99219e+03	1.21921e-03	4.84419e-01	6.52695e+01	-2.51645e-03	3.78902e+02	6.87270e-09
4.57764e+05	6.98671e+03	2.14956e+03	5.47420e-04	3.07665e-01	1.45368e+02	-1.77902e-03	3.80035e+02	7.77378e-09
2.86102e+05	7.38887e+03	1.45181e+03	2.31079e-04	1.96486e-01	3.44373e+02	-1.17590e-03	3.81166e+02	8.22124e-09
1.78814e+05	7.57787e+03	9.59215e+02	9.54216e-05	1.26581e-01	8.33957e+02	-7.53738e-04	3.82350e+02	8.43153e-09
1.11759e+05	7.64101e+03	6.33705e+02	3.94002e-05	8.29348e-02	2.01972e+03	-4.75012e-04	3.84769e+02	8.50178e-09
6.98492e+04	7.68720e+03	4.26459e+02	1.65717e-05	5.54765e-02	4.80200e+03	-2.98677e-04	3.87229e+02	8.55318e-09
4.36558e+04	7.71526e+03	2.96482e+02	7.20061e-06	3.84280e-02	1.10515e+04	-1.87355e-04	3.90033e+02	8.58440e-09
2.72848e+04	7.73653e+03	2.14075e+02	3.24949e-06	2.76706e-02	2.44892e+04	-1.17420e-04	3.92642e+02	8.60806e-09
1.70530e+04	7.75478e+03	1.62528e+02	1.54191e-06	2.09585e-02	5.16096e+04	-7.35604e-05	3.95224e+02	8.62837e-09
1.06581e+04	7.77290e+03	1.28389e+02	7.61272e-07	1.65176e-02	1.04532e+05	-4.60827e-05	3.97716e+02	8.64853e-09
6.66134e+03	7.78993e+03	1.09248e+02	4.04861e-07	1.40243e-02	1.96555e+05	-2.88648e-05	3.99532e+02	8.66748e-09
4.16334e+03	7.80804e+03	9.84906e+01	2.28121e-07	1.26140e-02	3.48839e+05	-1.80824e-05	4.02348e+02	8.68763e-09
2.60208e+03	7.82589e+03	9.20238e+01	1.33214e-07	1.17589e-02	5.97364e+05	-1.13274e-05	4.04944e+02	8.70749e-09
1.62630e+03	7.84421e+03	8.89738e+01	8.04994e-08	1.13426e-02	9.88547e+05	-7.09618e-06	4.07644e+02	8.72787e-09
1.01644e+03	7.86243e+03	8.70880e+01	4.92458e-08	1.10765e-02	1.61592e+06	-4.44542e-06	4.10276e+02	8.74815e-09
6.35275e+02	7.88128e+03	8.71353e+01	3.07953e-08	1.10560e-02	2.58408e+06	-2.78505e-06	4.12062e+02	8.76912e-09
3.97047e+02	7.89911e+03	8.81365e+01	1.94682e-08	1.11578e-02	4.08756e+06	-1.74459e-06	4.14791e+02	8.78896e-09
2.48154e+02	7.91745e+03	9.02528e+01	1.24598e-08	1.13992e-02	6.38673e+06	-1.09290e-06	4.17408e+02	8.80936e-09
1.55096e+02	7.93980e+03	9.37571e+01	8.08975e-09	1.18085e-02	9.83683e+06	-6.84993e-07	4.19975e+02	8.83423e-09
9.69352e+01	7.96068e+03	9.78255e+01	5.27549e-09	1.22886e-02	1.50844e+07	-4.29246e-07	4.22912e+02	8.85747e-09
6.05845e+01	7.98040e+03	1.02756e+02	3.46337e-09	1.28761e-02	2.29769e+07	-2.68944e-07	4.25560e+02	8.87941e-09
3.78653e+01	8.00579e+03	1.09091e+02	2.29804e-09	1.36265e-02	3.46284e+07	-1.68624e-07	4.27945e+02	8.90765e-09
2.36658e+01	8.03055e+03	1.16648e+02	1.53578e-09	1.45255e-02	5.18158e+07	-1.05716e-07	4.30473e+02	8.93520e-09
1.47911e+01	8.05911e+03	1.25145e+02	1.02978e-09	1.55283e-02	7.72765e+07	-6.63078e-08	4.33133e+02	8.96699e-09
9.24446e+00	8.08772e+03	1.35268e+02	6.95673e-10	1.67251e-02	1.14389e+08	-4.15895e-08	4.36220e+02	8.99882e-09
5.77779e+00	8.11858e+03	1.46549e+02	4.71057e-10	1.80511e-02	1.68934e+08	-2.60926e-08	4.38813e+02	9.03315e-09
3.61112e+00	8.15625e+03	1.62079e+02	3.25609e-10	1.98717e-02	2.44396e+08	-1.63836e-08	4.41830e+02	9.07507e-09
2.25695e+00	8.19182e+03	1.78824e+02	2.24532e-10	2.18296e-02	3.54416e+08	-1.02844e-08	4.44984e+02	9.11464e-09
1.41059e+00	8.23789e+03	1.97646e+02	1.55103e-10	2.39923e-02	5.13063e+08	-6.46390e-09	4.49286e+02	9.16590e-09
8.81621e-01	8.27934e+03	2.22974e+02	1.09362e-10	2.69314e-02	7.27655e+08	-4.06026e-09	4.56287e+02	9.21202e-09
5.51013e-01	8.32603e+03	2.53003e+02	7.75562e-11	3.03870e-02	1.02606e+09	-2.55198e-09	4.66038e+02	9.26397e-09
3.44383e-01	8.36846e+03	2.82647e+02	5.41522e-11	3.37753e-02	1.46951e+09	-1.60311e-09	4.81325e+02	9.31118e-09
2.15239e-01	8.39383e+03	3.19923e+02	3.83087e-11	3.81141e-02	2.07727e+09	-1.00498e-09	5.07025e+02	9.33941e-09
1.00000e-01	8.46719e+03	3.96463e+02	2.20563e-11	4.68235e-02	3.60793e+09	-4.70996e-10	5.58041e+02	9.42103e-09